      Wavelength        FWHM
       (microns)      (microns)
       0.100000       0.000200
       0.100200       0.000200
       0.100400       0.000200
       0.100600       0.000200
       0.100800       0.000200
       0.101000       0.000200
       0.101200       0.000200
       0.101400       0.000200
       0.101600       0.000200
       0.101800       0.000200
       0.102000       0.000200
       0.102200       0.000200
       0.102400       0.000200
       0.102600       0.000200
       0.102800       0.000200
       0.103000       0.000200
       0.103200       0.000200
       0.103400       0.000200
       0.103600       0.000200
       0.103800       0.000200
       0.104000       0.000200
       0.104200       0.000200
       0.104400       0.000200
       0.104600       0.000200
       0.104800       0.000200
       0.105000       0.000200
       0.105200       0.000200
       0.105400       0.000200
       0.105600       0.000200
       0.105800       0.000200
       0.106000       0.000200
       0.106200       0.000200
       0.106400       0.000200
       0.106600       0.000200
       0.106800       0.000200
       0.107000       0.000200
       0.107200       0.000200
       0.107400       0.000200
       0.107600       0.000200
       0.107800       0.000200
       0.108000       0.000200
       0.108200       0.000200
       0.108400       0.000200
       0.108600       0.000200
       0.108800       0.000200
       0.109000       0.000200
       0.109200       0.000200
       0.109400       0.000200
       0.109600       0.000200
       0.109800       0.000200
       0.110000       0.000200
       0.110200       0.000200
       0.110400       0.000200
       0.110600       0.000200
       0.110800       0.000200
       0.111000       0.000200
       0.111200       0.000200
       0.111400       0.000200
       0.111600       0.000200
       0.111800       0.000200
       0.112000       0.000200
       0.112200       0.000200
       0.112400       0.000200
       0.112600       0.000200
       0.112800       0.000200
       0.113000       0.000200
       0.113200       0.000200
       0.113400       0.000200
       0.113600       0.000200
       0.113800       0.000200
       0.114000       0.000200
       0.114200       0.000200
       0.114400       0.000200
       0.114600       0.000200
       0.114800       0.000200
       0.115000       0.000200
       0.115200       0.000200
       0.115400       0.000200
       0.115600       0.000200
       0.115800       0.000200
       0.116000       0.000200
       0.116200       0.000200
       0.116400       0.000200
       0.116600       0.000200
       0.116800       0.000200
       0.117000       0.000200
       0.117200       0.000200
       0.117400       0.000200
       0.117600       0.000200
       0.117800       0.000200
       0.118000       0.000200
       0.118200       0.000200
       0.118400       0.000200
       0.118600       0.000200
       0.118800       0.000200
       0.119000       0.000200
       0.119200       0.000200
       0.119400       0.000200
       0.119600       0.000200
       0.119800       0.000200
       0.120000       0.000200
       0.120200       0.000200
       0.120400       0.000200
       0.120600       0.000200
       0.120800       0.000200
       0.121000       0.000200
       0.121200       0.000200
       0.121400       0.000200
       0.121600       0.000200
       0.121800       0.000200
       0.122000       0.000200
       0.122200       0.000200
       0.122400       0.000200
       0.122600       0.000200
       0.122800       0.000200
       0.123000       0.000200
       0.123200       0.000200
       0.123400       0.000200
       0.123600       0.000200
       0.123800       0.000200
       0.124000       0.000200
       0.124200       0.000200
       0.124400       0.000200
       0.124600       0.000200
       0.124800       0.000200
       0.125000       0.000200
       0.125200       0.000200
       0.125400       0.000200
       0.125600       0.000200
       0.125800       0.000200
       0.126000       0.000200
       0.126200       0.000200
       0.126400       0.000200
       0.126600       0.000200
       0.126800       0.000200
       0.127000       0.000200
       0.127200       0.000200
       0.127400       0.000200
       0.127600       0.000200
       0.127800       0.000200
       0.128000       0.000200
       0.128200       0.000200
       0.128400       0.000200
       0.128600       0.000200
       0.128800       0.000200
       0.129000       0.000200
       0.129200       0.000200
       0.129400       0.000200
       0.129600       0.000200
       0.129800       0.000200
       0.130000       0.000200
       0.130200       0.000200
       0.130400       0.000200
       0.130600       0.000200
       0.130800       0.000200
       0.131000       0.000200
       0.131200       0.000200
       0.131400       0.000200
       0.131600       0.000200
       0.131800       0.000200
       0.132000       0.000200
       0.132200       0.000200
       0.132400       0.000200
       0.132600       0.000200
       0.132800       0.000200
       0.133000       0.000200
       0.133200       0.000200
       0.133400       0.000200
       0.133600       0.000200
       0.133800       0.000200
       0.134000       0.000200
       0.134200       0.000200
       0.134400       0.000200
       0.134600       0.000200
       0.134800       0.000200
       0.135000       0.000200
       0.135200       0.000200
       0.135400       0.000200
       0.135600       0.000200
       0.135800       0.000200
       0.136000       0.000200
       0.136200       0.000200
       0.136400       0.000200
       0.136600       0.000200
       0.136800       0.000200
       0.137000       0.000200
       0.137200       0.000200
       0.137400       0.000200
       0.137600       0.000200
       0.137800       0.000200
       0.138000       0.000200
       0.138200       0.000200
       0.138400       0.000200
       0.138600       0.000200
       0.138800       0.000200
       0.139000       0.000200
       0.139200       0.000200
       0.139400       0.000200
       0.139600       0.000200
       0.139800       0.000200
       0.140000       0.000200
       0.140200       0.000200
       0.140400       0.000200
       0.140600       0.000200
       0.140800       0.000200
       0.141000       0.000200
       0.141200       0.000200
       0.141400       0.000200
       0.141600       0.000200
       0.141800       0.000200
       0.142000       0.000200
       0.142200       0.000200
       0.142400       0.000200
       0.142600       0.000200
       0.142800       0.000200
       0.143000       0.000200
       0.143200       0.000200
       0.143400       0.000200
       0.143600       0.000200
       0.143800       0.000200
       0.144000       0.000200
       0.144200       0.000200
       0.144400       0.000200
       0.144600       0.000200
       0.144800       0.000200
       0.145000       0.000200
       0.145200       0.000200
       0.145400       0.000200
       0.145600       0.000200
       0.145800       0.000200
       0.146000       0.000200
       0.146200       0.000200
       0.146400       0.000200
       0.146600       0.000200
       0.146800       0.000200
       0.147000       0.000200
       0.147200       0.000200
       0.147400       0.000200
       0.147600       0.000200
       0.147800       0.000200
       0.148000       0.000200
       0.148200       0.000200
       0.148400       0.000200
       0.148600       0.000200
       0.148800       0.000200
       0.149000       0.000200
       0.149200       0.000200
       0.149400       0.000200
       0.149600       0.000200
       0.149800       0.000200
       0.150000       0.000200
       0.150200       0.000200
       0.150400       0.000200
       0.150600       0.000200
       0.150800       0.000200
       0.151000       0.000200
       0.151200       0.000200
       0.151400       0.000200
       0.151600       0.000200
       0.151800       0.000200
       0.152000       0.000200
       0.152200       0.000200
       0.152400       0.000200
       0.152600       0.000200
       0.152800       0.000200
       0.153000       0.000200
       0.153200       0.000200
       0.153400       0.000200
       0.153600       0.000200
       0.153800       0.000200
       0.154000       0.000200
       0.154200       0.000200
       0.154400       0.000200
       0.154600       0.000200
       0.154800       0.000200
       0.155000       0.000200
       0.155200       0.000200
       0.155400       0.000200
       0.155600       0.000200
       0.155800       0.000200
       0.156000       0.000200
       0.156200       0.000200
       0.156400       0.000200
       0.156600       0.000200
       0.156800       0.000200
       0.157000       0.000200
       0.157200       0.000200
       0.157400       0.000200
       0.157600       0.000200
       0.157800       0.000200
       0.158000       0.000200
       0.158200       0.000200
       0.158400       0.000200
       0.158600       0.000200
       0.158800       0.000200
       0.159000       0.000200
       0.159200       0.000200
       0.159400       0.000200
       0.159600       0.000200
       0.159800       0.000200
       0.160000       0.000200
       0.160200       0.000200
       0.160400       0.000200
       0.160600       0.000200
       0.160800       0.000200
       0.161000       0.000200
       0.161200       0.000200
       0.161400       0.000200
       0.161600       0.000200
       0.161800       0.000200
       0.162000       0.000200
       0.162200       0.000200
       0.162400       0.000200
       0.162600       0.000200
       0.162800       0.000200
       0.163000       0.000200
       0.163200       0.000200
       0.163400       0.000200
       0.163600       0.000200
       0.163800       0.000200
       0.164000       0.000200
       0.164200       0.000200
       0.164400       0.000200
       0.164600       0.000200
       0.164800       0.000200
       0.165000       0.000200
       0.165200       0.000200
       0.165400       0.000200
       0.165600       0.000200
       0.165800       0.000200
       0.166000       0.000200
       0.166200       0.000200
       0.166400       0.000200
       0.166600       0.000200
       0.166800       0.000200
       0.167000       0.000200
       0.167200       0.000200
       0.167400       0.000200
       0.167600       0.000200
       0.167800       0.000200
       0.168000       0.000200
       0.168200       0.000200
       0.168400       0.000200
       0.168600       0.000200
       0.168800       0.000200
       0.169000       0.000200
       0.169200       0.000200
       0.169400       0.000200
       0.169600       0.000200
       0.169800       0.000200
       0.170000       0.000200
       0.170200       0.000200
       0.170400       0.000200
       0.170600       0.000200
       0.170800       0.000200
       0.171000       0.000200
       0.171200       0.000200
       0.171400       0.000200
       0.171600       0.000200
       0.171800       0.000200
       0.172000       0.000200
       0.172200       0.000200
       0.172400       0.000200
       0.172600       0.000200
       0.172800       0.000200
       0.173000       0.000200
       0.173200       0.000200
       0.173400       0.000200
       0.173600       0.000200
       0.173800       0.000200
       0.174000       0.000200
       0.174200       0.000200
       0.174400       0.000200
       0.174600       0.000200
       0.174800       0.000200
       0.175000       0.000200
       0.175200       0.000200
       0.175400       0.000200
       0.175600       0.000200
       0.175800       0.000200
       0.176000       0.000200
       0.176200       0.000200
       0.176400       0.000200
       0.176600       0.000200
       0.176800       0.000200
       0.177000       0.000200
       0.177200       0.000200
       0.177400       0.000200
       0.177600       0.000200
       0.177800       0.000200
       0.178000       0.000200
       0.178200       0.000200
       0.178400       0.000200
       0.178600       0.000200
       0.178800       0.000200
       0.179000       0.000200
       0.179200       0.000200
       0.179400       0.000200
       0.179600       0.000200
       0.179800       0.000200
       0.180000       0.000200
       0.180200       0.000200
       0.180400       0.000200
       0.180600       0.000200
       0.180800       0.000200
       0.181000       0.000200
       0.181200       0.000200
       0.181400       0.000200
       0.181600       0.000200
       0.181800       0.000200
       0.182000       0.000200
       0.182200       0.000200
       0.182400       0.000200
       0.182600       0.000200
       0.182800       0.000200
       0.183000       0.000200
       0.183200       0.000200
       0.183400       0.000200
       0.183600       0.000200
       0.183800       0.000200
       0.184000       0.000200
       0.184200       0.000200
       0.184400       0.000200
       0.184600       0.000200
       0.184800       0.000200
       0.185000       0.000200
       0.185200       0.000200
       0.185400       0.000200
       0.185600       0.000200
       0.185800       0.000200
       0.186000       0.000200
       0.186200       0.000200
       0.186400       0.000200
       0.186600       0.000200
       0.186800       0.000200
       0.187000       0.000200
       0.187200       0.000200
       0.187400       0.000200
       0.187600       0.000200
       0.187800       0.000200
       0.188000       0.000200
       0.188200       0.000200
       0.188400       0.000200
       0.188600       0.000200
       0.188800       0.000200
       0.189000       0.000200
       0.189200       0.000200
       0.189400       0.000200
       0.189600       0.000200
       0.189800       0.000200
       0.190000       0.000200
       0.190200       0.000200
       0.190400       0.000200
       0.190600       0.000200
       0.190800       0.000200
       0.191000       0.000200
       0.191200       0.000200
       0.191400       0.000200
       0.191600       0.000200
       0.191800       0.000200
       0.192000       0.000200
       0.192200       0.000200
       0.192400       0.000200
       0.192600       0.000200
       0.192800       0.000200
       0.193000       0.000200
       0.193200       0.000200
       0.193400       0.000200
       0.193600       0.000200
       0.193800       0.000200
       0.194000       0.000200
       0.194200       0.000200
       0.194400       0.000200
       0.194600       0.000200
       0.194800       0.000200
       0.195000       0.000200
       0.195200       0.000200
       0.195400       0.000200
       0.195600       0.000200
       0.195800       0.000200
       0.196000       0.000200
       0.196200       0.000200
       0.196400       0.000200
       0.196600       0.000200
       0.196800       0.000200
       0.197000       0.000200
       0.197200       0.000200
       0.197400       0.000200
       0.197600       0.000200
       0.197800       0.000200
       0.198000       0.000200
       0.198200       0.000200
       0.198400       0.000200
       0.198600       0.000200
       0.198800       0.000200
       0.199000       0.000200
       0.199200       0.000200
       0.199400       0.000200
       0.199600       0.000200
       0.199800       0.000200
       0.200000       0.001000
       0.201000       0.001000
       0.202000       0.001000
       0.203000       0.001000
       0.204000       0.001000
       0.205000       0.001000
       0.206000       0.001000
       0.207000       0.001000
       0.208000       0.001000
       0.209000       0.001000
       0.210000       0.001000
       0.211000       0.001000
       0.212000       0.001000
       0.213000       0.001000
       0.214000       0.001000
       0.215000       0.001000
       0.216000       0.001000
       0.217000       0.001000
       0.218000       0.001000
       0.219000       0.001000
       0.220000       0.001000
       0.221000       0.001000
       0.222000       0.001000
       0.223000       0.001000
       0.224000       0.001000
       0.225000       0.001000
       0.226000       0.001000
       0.227000       0.001000
       0.228000       0.001000
       0.229000       0.001000
       0.230000       0.001000
       0.231000       0.001000
       0.232000       0.001000
       0.233000       0.001000
       0.234000       0.001000
       0.235000       0.001000
       0.236000       0.001000
       0.237000       0.001000
       0.238000       0.001000
       0.239000       0.001000
       0.240000       0.001000
       0.241000       0.001000
       0.242000       0.001000
       0.243000       0.001000
       0.244000       0.001000
       0.245000       0.001000
       0.246000       0.001000
       0.247000       0.001000
       0.248000       0.001000
       0.249000       0.001000
       0.250000       0.001000
       0.251000       0.001000
       0.252000       0.001000
       0.253000       0.001000
       0.254000       0.001000
       0.255000       0.001000
       0.256000       0.001000
       0.257000       0.001000
       0.258000       0.001000
       0.259000       0.001000
       0.260000       0.001000
       0.261000       0.001000
       0.262000       0.001000
       0.263000       0.001000
       0.264000       0.001000
       0.265000       0.001000
       0.266000       0.001000
       0.267000       0.001000
       0.268000       0.001000
       0.269000       0.001000
       0.270000       0.001000
       0.271000       0.001000
       0.272000       0.001000
       0.273000       0.001000
       0.274000       0.001000
       0.275000       0.001000
       0.276000       0.001000
       0.277000       0.001000
       0.278000       0.001000
       0.279000       0.001000
       0.280000       0.001000
       0.281000       0.001000
       0.282000       0.001000
       0.283000       0.001000
       0.284000       0.001000
       0.285000       0.001000
       0.286000       0.001000
       0.287000       0.001000
       0.288000       0.001000
       0.289000       0.001000
       0.290000       0.001000
       0.291000       0.001000
       0.292000       0.001000
       0.293000       0.001000
       0.294000       0.001000
       0.295000       0.001000
       0.296000       0.001000
       0.297000       0.001000
       0.298000       0.001000
       0.299000       0.001000
       0.300000       0.001000
       0.301000       0.001000
       0.302000       0.001000
       0.303000       0.001000
       0.304000       0.001000
       0.305000       0.001000
       0.306000       0.001000
       0.307000       0.001000
       0.308000       0.001000
       0.309000       0.001000
       0.310000       0.001000
       0.311000       0.001000
       0.312000       0.001000
       0.313000       0.001000
       0.314000       0.001000
       0.315000       0.001000
       0.316000       0.001000
       0.317000       0.001000
       0.318000       0.001000
       0.319000       0.001000
       0.320000       0.001000
       0.321000       0.001000
       0.322000       0.001000
       0.323000       0.001000
       0.324000       0.001000
       0.325000       0.001000
       0.326000       0.001000
       0.327000       0.001000
       0.328000       0.001000
       0.329000       0.001000
       0.330000       0.001000
       0.331000       0.001000
       0.332000       0.001000
       0.333000       0.001000
       0.334000       0.001000
       0.335000       0.001000
       0.336000       0.001000
       0.337000       0.001000
       0.338000       0.001000
       0.339000       0.001000
       0.340000       0.001000
       0.341000       0.001000
       0.342000       0.001000
